Time (s) rumore_ambientale_candela	Light Intensity (% of scale max) rumore_ambientale_candela
0.0	3.63579
0.04	3.58774
0.08	3.60611
0.12	3.655
0.16	3.70058
0.2	3.64688
0.24	3.59584
0.28	3.59569
0.32	3.63542
0.36	3.68797
0.4	3.68156
0.44	3.60727
0.48	3.58397
0.52	3.6217
0.56	3.6747
0.6	3.69321
0.64	3.6261
0.68	3.58577
0.72	3.62384
0.76	3.67184
0.8	3.7157
0.84	3.65666
0.88	3.61037
0.92	3.62917
0.96	3.67578
1.0	3.73126
1.04	3.70958
1.08	3.63805
1.12	3.62352
1.16	3.66399
1.2	3.7162
1.24	3.71732
1.28	3.65131
1.32	3.61414
1.36	3.64658
1.4	3.69504
1.44	3.72182
1.48	3.65816
1.52	3.60722
1.56	3.62865
1.6	3.66641
1.64	3.71291
1.68	3.68726
1.72	3.60884
1.76	3.61501
1.8	3.65685
1.84	3.71614
1.88	3.71069
1.92	3.64235
1.96	3.61998
2.0	3.6561
2.04	3.71358
2.08	3.72929
2.12	3.6683
2.16	3.62665
2.2	3.65425
2.24	3.70409
2.28	3.74712
2.32	3.69246
2.36	3.6447
2.4	3.65228
2.44	3.69812
2.48	3.74321
2.52	3.72513
2.56	3.65034
2.6	3.63495
2.64	3.67873
2.68	3.73109
2.72	3.74152
2.76	3.67671
2.8	3.63806
2.84	3.66547
2.88	3.7198
2.92	3.75316
2.96	3.69737
3.0	3.64771
3.04	3.66946
3.08	3.7139
3.12	3.7726
3.16	3.7558
3.2	3.68219
3.24	3.66469
3.28	3.7097
3.32	3.75865
3.36	3.76601
3.4	3.69397
3.44	3.6534
3.48	3.67917
3.52	3.73058
3.56	3.75725
3.6	3.69626
3.64	3.64415
3.68	3.66241
3.72	3.70541
3.76	3.75671
3.8	3.73459
3.84	3.65982
3.88	3.65317
3.92	3.70299
3.96	3.75389
4.0	3.75665
4.04	3.69319
4.08	3.66766
4.12	3.70502
4.16	3.765
4.2	3.7921
4.24	3.73727
4.28	3.69547
4.32	3.72252
4.36	3.77977
4.4	3.82867
4.44	3.81648
4.48	3.75316
4.52	3.75223
4.56	3.80167
4.6	3.86484
4.64	3.86363
4.68	3.80333
4.72	3.77695
4.76	3.81314
4.8	3.86574
4.84	3.89917
4.88	3.84422
4.92	3.79497
4.96	3.81223
5.0	3.8638
5.04	3.90878
5.08	3.88974
5.12	3.82001
5.16	3.80693
5.2	3.84801
5.24	3.90221
5.28	3.90634
5.32	3.84055
5.36	3.7968
5.4	3.83116
5.44	3.8791
5.48	3.90526
5.52	3.87808
5.56	3.7951
5.6	3.80605
5.64	3.85135
5.68	3.89696
5.72	3.88629
5.76	3.80975
5.8	3.7897
5.84	3.82605
5.88	3.87392
5.92	3.89072
5.96	3.82814
6.0	3.77841
6.04	3.80736
6.08	3.85225
6.12	3.88606
6.16	3.85553
6.2	3.776
6.24	3.77065
6.28	3.81235
6.32	3.86356
6.36	3.85379
6.4	3.77933
6.44	3.75034
6.48	3.78391
6.52	3.83441
6.56	3.85715
6.6	3.79865
6.64	3.74568
6.68	3.77032
6.72	3.81592
6.76	3.85912
6.8	3.83752
6.84	3.76381
6.88	3.75935
6.92	3.80234
6.96	3.85373
7.0	3.85568
7.04	3.78859
7.08	3.7525
7.12	3.78276
7.16	3.83247
7.2	3.86771
7.24	3.83636
7.28	3.75882
7.32	3.77531
7.36	3.8213
7.4	3.87292
7.44	3.86147
7.48	3.79471
7.52	3.77638
7.56	3.81923
7.6	3.87321
7.64	3.88142
7.68	3.82213
7.72	3.77898
7.76	3.8045
7.8	3.85242
7.84	3.90189
7.88	3.87642
7.92	3.8074
7.96	3.80974
8.0	3.86029
8.04	3.91486
8.08	3.90915
8.12	3.84027
8.16	3.80797
8.2	3.84468
8.24	3.89577
8.28	3.92406
8.32	3.88707
8.36	3.80388
8.4	3.82115
8.44	3.86073
8.48	3.8934
8.52	3.86003
8.56	3.75464
8.6	3.73285
8.64	3.77063
8.68	3.82281
8.72	3.82071
8.76	3.74881
8.8	3.71278
8.84	3.74797
8.88	3.80217
8.92	3.82811
8.96	3.7926
9.0	3.71254
9.04	3.73563
9.08	3.7847
9.12	3.84552
9.16	3.83484
9.2	3.76952
9.24	3.7625
9.28	3.80675
9.32	3.86555
9.36	3.8613
9.4	3.78769
9.44	3.74582
9.48	3.77734
9.52	3.83809
9.56	3.86168
9.6	3.82623
9.64	3.75085
9.68	3.76579
9.72	3.81256
9.76	3.86575
9.8	3.84406
9.84	3.76443
9.88	3.7578
9.92	3.79871
9.96	3.85178
10.0	3.85547
10.04	3.7867
10.08	3.74611
10.12	3.77614
10.16	3.82086
10.2	3.8542
10.24	3.81911
10.28	3.73674
10.32	3.75719
10.36	3.80139
10.4	3.85609
10.44	3.83574
10.48	3.76057
10.52	3.75247
10.56	3.79134
10.6	3.84419
10.64	3.85234
10.68	3.78735
10.72	3.74294
10.76	3.7738
10.8	3.81786
10.84	3.8549
10.88	3.81949
10.92	3.75633
10.96	3.80148
11.0	3.86632
11.04	3.92068
11.08	3.90855
11.12	3.83157
11.16	3.80397
11.2	3.84389
11.24	3.89833
11.28	3.9173
11.32	3.88058
11.36	3.80338
11.4	3.83064
11.44	3.8788
11.48	3.91721
11.52	3.89204
11.56	3.81291
11.6	3.81082
11.64	3.85144
11.68	3.9073
11.72	3.89803
11.76	3.82356
11.8	3.79889
11.84	3.83363
11.88	3.88048
11.92	3.90511
11.96	3.86276
12.0	3.78334
12.04	3.80455
12.08	3.85016
12.12	3.89926
12.16	3.87077
12.2	3.78995
12.24	3.78319
12.28	3.82396
12.32	3.87622
12.36	3.8744
12.4	3.82654
12.44	3.76009
12.48	3.78754
12.52	3.83649
12.56	3.85684
12.6	3.81982
12.64	3.73398
12.68	3.74605
12.72	3.78975
12.76	3.83975
12.8	3.81371
12.84	3.72916
12.88	3.72214
12.92	3.75925
12.96	3.81026
13.0	3.81241
13.04	3.76682
13.08	3.7074
13.12	3.7394
13.16	3.7942
13.2	3.8237
13.24	3.79266
13.28	3.72092
13.32	3.74025
13.36	3.78851
13.4	3.84763
13.44	3.82703
13.48	3.75499
13.52	3.75581
13.56	3.8004
13.6	3.85966
13.64	3.86391
13.68	3.82503
13.72	3.76744
13.76	3.80305
13.8	3.85297
13.84	3.88879
13.88	3.85251
13.92	3.77599
13.96	3.79579
14.0	3.84503
14.04	3.89647
14.08	3.87492
14.12	3.79649
14.16	3.78876
14.2	3.82584
14.24	3.88268
14.28	3.8837
14.32	3.84494
14.36	3.77969
14.4	3.81403
14.44	3.86624
14.48	3.89581
14.52	3.86821
14.56	3.79272
14.6	3.80521
14.64	3.85094
14.68	3.90643
14.72	3.88852
14.76	3.84827
14.8	3.8076
14.84	3.84869
14.88	3.90236
14.92	3.90845
14.96	3.86664
15.0	3.80383
15.04	3.83209
15.08	3.88345
15.12	3.92751
15.16	3.89455
15.2	3.81334
15.24	3.82594
15.28	3.87378
15.32	3.92577
15.36	3.9146
15.4	3.86934
15.44	3.81824
15.48	3.8541
15.52	3.90411
15.56	3.91966
15.6	3.87628
15.64	3.79102
15.68	3.81133
15.72	3.85544
15.76	3.89261
15.8	3.85844
15.84	3.7692
15.88	3.77095
15.92	3.81035
15.96	3.86139
16.0	3.84879
16.04	3.80388
16.08	3.74245
16.12	3.78043
16.16	3.82739
16.2	3.84576
16.24	3.80185
16.28	3.71873
16.32	3.74182
16.36	3.78819
16.4	3.82469
16.44	3.79556
16.48	3.74684
16.52	3.70667
16.56	3.75078
16.6	3.79857
16.64	3.78716
16.68	3.74002
16.72	3.67917
16.76	3.71259
16.8	3.76366
16.84	3.77562
16.88	3.73251
16.92	3.65689
16.96	3.68684
17.0	3.72961
17.04	3.77374
17.08	3.74263
17.12	3.6577
17.16	3.66139
17.2	3.70851
17.24	3.76299
17.28	3.75032
17.32	3.70305
17.36	3.65305
17.4	3.6915
17.44	3.7428
17.48	3.75677
17.52	3.71571
17.56	3.64578
17.6	3.67738
17.64	3.72997
17.68	3.76588
17.72	3.73503
17.76	3.65511
17.8	3.6691
17.84	3.71542
17.88	3.77141
17.92	3.75235
17.96	3.70773
18.0	3.66263
18.04	3.71048
18.08	3.76518
18.12	3.76904
18.16	3.72639
18.2	3.66052
18.24	3.69606
18.28	3.74396
18.32	3.77451
18.36	3.74088
18.4	3.66351
18.44	3.68144
18.48	3.72684
18.52	3.77972
18.56	3.75447
18.6	3.70641
18.64	3.66393
18.68	3.71129
18.72	3.7618
18.76	3.75676
18.8	3.71312
18.84	3.65483
18.88	3.69176
18.92	3.7498
18.96	3.76482
19.0	3.7263
19.04	3.6523
19.08	3.67986
19.12	3.72758
19.16	3.77205
19.2	3.74121
19.24	3.69394
19.28	3.67189
19.32	3.72224
19.36	3.7746
19.4	3.76187
19.44	3.71936
19.48	3.68155
19.52	3.7253
19.56	3.78302
19.6	3.79749
19.64	3.76089
19.68	3.69901
19.72	3.73436
19.76	3.78531
19.8	3.82626
19.84	3.79091
19.88	3.74539
19.92	3.73376
19.96	3.78134
20.0	3.8322
20.04	3.81476
20.08	3.76828
20.12	3.72774
20.16	3.76714
20.2	3.81958
20.24	3.82387
20.28	3.77977
20.32	3.71758
20.36	3.74742
20.4	3.79594
20.44	3.83133
20.48	3.79497
20.52	3.74316
20.56	3.72723
20.6	3.76764
20.64	3.81984
20.68	3.7946
20.72	3.74352
20.76	3.6996
20.8	3.73393
20.84	3.78748
20.88	3.78325
20.92	3.73816
20.96	3.66751
21.0	3.69386
21.04	3.74612
21.08	3.76845
21.12	3.73257
21.16	3.68239
21.2	3.67236
21.24	3.71683
21.28	3.77069
21.32	3.74623
21.36	3.70186
21.4	3.66199
21.44	3.70358
21.48	3.76294
21.52	3.76161
21.56	3.71927
21.6	3.65503
21.64	3.69571
21.68	3.74486
21.72	3.77667
21.76	3.73962
21.8	3.69165
21.84	3.67818
21.88	3.72762
21.92	3.77573
21.96	3.75153
22.0	3.70403
22.04	3.66554
22.08	3.70996
22.12	3.75977
22.16	3.75652
22.2	3.70738
22.24	3.64256
22.28	3.68465
22.32	3.73593
22.36	3.75693
22.4	3.71811
22.44	3.66609
22.48	3.66801
22.52	3.71852
22.56	3.7607
22.6	3.73074
22.64	3.681
22.68	3.6553
22.72	3.70261
22.76	3.75876
22.8	3.74417
22.84	3.69878
22.88	3.64702
22.92	3.69011
22.96	3.73994
23.0	3.74915
23.04	3.70755
23.08	3.65697
23.12	3.67241
23.16	3.72798
23.2	3.75877
23.24	3.72768
23.28	3.68138
23.32	3.66908
23.36	3.71909
23.4	3.76859
23.44	3.74658
23.48	3.70068
23.52	3.66681
23.56	3.70799
23.6	3.76883
23.64	3.7657
23.68	3.72473
23.72	3.67485
23.76	3.70328
23.8	3.75833
23.84	3.78676
23.88	3.75334
23.92	3.70805
23.96	3.69894
24.0	3.75172
24.04	3.79919
24.08	3.7776
24.12	3.73405
24.16	3.69247
24.2	3.73729
24.24	3.793
24.28	3.79071
24.32	3.74715
24.36	3.69052
24.4	3.72226
24.44	3.77429
24.48	3.79648
24.52	3.75735
24.56	3.71004
24.6	3.70728
24.64	3.75966
24.68	3.80663
24.72	3.78706
24.76	3.7404
24.8	3.70334
24.84	3.7491
24.88	3.80708
24.92	3.80479
24.96	3.76169
25.0	3.70665
25.04	3.73439
25.08	3.78162
25.12	3.80724
25.16	3.76735
25.2	3.71541
25.24	3.7108
25.28	3.7556
25.32	3.80283
25.36	3.77502
25.4	3.73149
25.44	3.69508
25.48	3.73988
25.52	3.80061
25.56	3.79745
25.6	3.75586
25.64	3.70486
25.68	3.74025
25.72	3.79672
25.76	3.81828
25.8	3.78163
25.84	3.73529
25.88	3.72511
25.92	3.77481
25.96	3.81665
26.0	3.78767
26.04	3.73428
26.08	3.68567
26.12	3.72388
26.16	3.76782
26.2	3.75945
26.24	3.71022
26.28	3.65109
26.32	3.67383
26.36	3.72141
26.4	3.74753
26.44	3.71117
26.48	3.65715
26.52	3.65129
26.56	3.70247
26.6	3.74786
26.64	3.72139
26.68	3.67455
26.72	3.64505
26.76	3.69138
26.8	3.74936
26.84	3.74255
26.88	3.69722
26.92	3.64537
26.96	3.67998
27.0	3.73257
27.04	3.74973
27.08	3.71281
27.12	3.66307
27.16	3.6739
27.2	3.7218
27.24	3.76361
27.28	3.73492
27.32	3.68851
27.36	3.66501
27.4	3.70929
27.44	3.7661
27.48	3.75148
27.52	3.70639
27.56	3.65462
27.6	3.70332
27.64	3.75467
27.68	3.76755
27.72	3.72548
27.76	3.67612
27.8	3.6869
27.84	3.7437
27.88	3.77548
27.92	3.74287
27.96	3.69626
28.0	3.6857
28.04	3.73242
28.08	3.78339
28.12	3.76543
28.16	3.72197
28.2	3.67403
28.24	3.7213
28.28	3.77649
28.32	3.78513
28.36	3.74748
28.4	3.7012
28.44	3.7169
28.48	3.76405
28.52	3.80286
28.56	3.7717
28.6	3.72031
28.64	3.69585
28.68	3.74149
28.72	3.78979
28.76	3.77328
28.8	3.73016
28.84	3.69031
28.88	3.7317
28.92	3.78462
28.96	3.7952
29.0	3.75661
29.04	3.70555
29.08	3.72241
29.12	3.77248
29.16	3.81033
29.2	3.77974
29.24	3.73543
29.28	3.71774
29.32	3.76976
29.36	3.81833
29.4	3.80093
29.44	3.76054
29.48	3.71883
29.52	3.76169
29.56	3.81415
29.6	3.82196
29.64	3.78317
29.68	3.73137
29.72	3.75005
29.76	3.79771
29.8	3.83383
29.84	3.80058
29.88	3.75157
29.92	3.73669
29.96	3.78056
30.0	3.83096
30.04	3.81482
30.08	3.76849
30.12	3.71895
30.16	3.76059
30.2	3.81596
30.24	3.82303
30.28	3.78418
30.32	3.72969
30.36	3.74625
30.4	3.7989
30.44	3.82668
30.48	3.79558
30.52	3.74397
30.56	3.71118
30.6	3.74991
30.64	3.80008
30.68	3.77701
30.72	3.72888
30.76	3.67738
30.8	3.72287
30.84	3.78299
30.88	3.78746
30.92	3.74448
30.96	3.69131
31.0	3.69122
31.04	3.74161
31.08	3.77155
31.12	3.73611
31.16	3.68898
31.2	3.66496
31.24	3.71347
31.28	3.76108
31.32	3.7408
31.36	3.69135
31.4	3.64633
31.44	3.68333
31.48	3.73627
31.52	3.73628
31.56	3.69125
31.6	3.63588
31.64	3.6541
31.68	3.69391
31.72	3.69637
31.76	3.62433
31.8	3.56378
31.84	3.55188
31.88	3.60469
31.92	3.65421
31.96	3.63338
32.0	3.58499
32.04	3.54181
32.08	3.58563
32.12	3.63994
32.16	3.64006
32.2	3.59752
32.24	3.54553
32.28	3.57507
32.32	3.62361
32.36	3.65277
32.4	3.61722
32.44	3.56622
32.48	3.56335
32.52	3.60966
32.56	3.65857
32.6	3.63284
32.64	3.58774
32.68	3.55353
32.72	3.60268
32.76	3.65733
32.8	3.64792
32.84	3.60576
32.88	3.55412
32.92	3.59125
32.96	3.65137
33.0	3.66214
33.04	3.62289
33.08	3.57153
33.12	3.58864
33.16	3.63715
33.2	3.67059
33.24	3.6337
33.28	3.58342
33.32	3.55991
33.36	3.60355
33.4	3.64993
33.44	3.62935
33.48	3.5826
33.52	3.54263
33.56	3.59004
33.6	3.65094
33.64	3.64832
33.68	3.60533
33.72	3.55171
33.76	3.58005
33.8	3.63701
33.84	3.65311
33.88	3.61298
33.92	3.55685
33.96	3.55363
34.0	3.59734
34.04	3.63606
34.08	3.60042
34.12	3.54243
34.16	3.50009
34.2	3.53059
34.24	3.57298
34.28	3.56845
34.32	3.52736
34.36	3.48048
34.4	3.49373
34.44	3.53883
34.48	3.57484
34.52	3.55357
34.56	3.50797
34.6	3.46968
34.64	3.51329
34.68	3.55737
34.72	3.56903
34.76	3.5287
34.8	3.47842
34.84	3.47267
34.88	3.50545
34.92	3.55334
34.96	3.53201
35.0	3.49005
35.04	3.43745
35.08	3.46243
35.12	3.51112
35.16	3.54881
35.2	3.52257
35.24	3.48108
35.28	3.45517
35.32	3.48947
35.36	3.54219
35.4	3.55205
35.44	3.51555
35.48	3.47215
35.52	3.47116
35.56	3.50641
35.6	3.55563
35.64	3.53566
35.68	3.49402
35.72	3.4454
35.76	3.47693
35.8	3.52162
35.84	3.55606
35.88	3.52249
35.92	3.4821
35.96	3.46152
36.0	3.49672
36.04	3.55193
36.08	3.55194
36.12	3.51268
36.16	3.46448
36.2	3.47229
36.24	3.52008
36.28	3.56827
36.32	3.54567
36.36	3.50345
36.4	3.468
36.44	3.4996
36.48	3.54745
36.52	3.56638
36.56	3.53024
36.6	3.48622
36.64	3.48033
36.68	3.51755
36.72	3.56714
36.76	3.55289
36.8	3.50908
36.84	3.46083
36.88	3.48811
36.92	3.53847
36.96	3.56934
37.0	3.54097
37.04	3.49551
37.08	3.46768
37.12	3.51302
37.16	3.55791
37.2	3.55769
37.24	3.51765
37.28	3.47128
37.32	3.49104
37.36	3.53564
37.4	3.58775
37.44	3.56508
37.48	3.52859
37.52	3.49664
37.56	3.53781
37.6	3.59166
37.64	3.59813
37.68	3.55876
37.72	3.52383
37.76	3.56238
37.8	3.632
37.84	3.66963
37.88	3.64127
37.92	3.59814
37.96	3.58711
38.0	3.6414
38.04	3.69633
38.08	3.68137
38.12	3.63875
38.16	3.60103
38.2	3.64114
38.24	3.6991
38.28	3.69684
38.32	3.65262
38.36	3.59891
38.4	3.62529
38.44	3.67078
38.48	3.7038
38.52	3.66893
38.56	3.61763
38.6	3.60081
38.64	3.6512
38.68	3.6965
38.72	3.67639
38.76	3.62814
38.8	3.59282
38.84	3.6329
38.88	3.69556
38.92	3.69339
38.96	3.65746
39.0	3.60727
39.04	3.63522
39.08	3.68405
39.12	3.70944
39.16	3.67207
39.2	3.6219
39.24	3.60954
39.28	3.65308
39.32	3.69043
39.36	3.65157
39.4	3.59294
39.44	3.50963
39.48	3.51152
39.52	3.53441
39.56	3.52568
39.6	3.49013
39.64	3.45984
39.68	3.47403
39.72	3.52063
39.76	3.56897
39.8	3.55493
39.84	3.51491
39.88	3.46893
39.92	3.50487
39.96	3.54883
40.0	3.5742
40.04	3.54297
40.08	3.49911
40.12	3.47856
40.16	3.50996
40.2	3.55879
40.24	3.54936
40.28	3.50694
40.32	3.45145
40.36	3.48795
40.4	3.54594
40.44	3.59717
40.48	3.57536
40.52	3.53769
40.56	3.50945
40.6	3.54297
40.64	3.59068
40.68	3.58736
40.72	3.53535
40.76	3.46133
40.8	3.47427
40.84	3.51524
40.88	3.55214
40.92	3.53362
40.96	3.49928
41.0	3.47574
41.04	3.51784
41.08	3.56937
41.12	3.58533
41.16	3.54521
41.2	3.49611
41.24	3.48975
41.28	3.52528
41.32	3.57129
41.36	3.5475
41.4	3.50357
41.44	3.46521
41.48	3.49989
41.52	3.55014
41.56	3.57408
41.6	3.53432
41.64	3.48674
41.68	3.47116
41.72	3.50487
41.76	3.55641
41.8	3.54501
41.84	3.50354
41.88	3.44267
41.92	3.47377
41.96	3.51228
42.0	3.54996
42.04	3.51595
42.08	3.47049
42.12	3.43863
42.16	3.4763
42.2	3.52708
42.24	3.53731
42.28	3.49982
42.32	3.45496
42.36	3.45187
42.4	3.49731
42.44	3.54762
42.48	3.53143
42.52	3.49141
42.56	3.44037
42.6	3.47008
42.64	3.51849
42.68	3.55151
42.72	3.52103
42.76	3.47684
42.8	3.45351
42.84	3.4865
42.88	3.54097
42.92	3.5444
42.96	3.50786
43.0	3.46217
43.04	3.46547
43.08	3.51192
43.12	3.55592
43.16	3.54097
43.2	3.49951
43.24	3.45262
43.28	3.47829
43.32	3.52647
43.36	3.55341
43.4	3.52159
43.44	3.47704
43.48	3.45401
43.52	3.48825
43.56	3.53979
43.6	3.54051
43.64	3.49916
43.68	3.4313
43.72	3.46312
43.76	3.49988
43.8	3.54977
43.84	3.52953
43.88	3.48769
43.92	3.45026
43.96	3.48296
44.0	3.5359
44.04	3.55865
44.08	3.52362
44.12	3.48093
44.16	3.46344
44.2	3.50963
44.24	3.55769
44.28	3.55057
44.32	3.51183
44.36	3.45129
44.4	3.4859
44.44	3.52769
44.48	3.56429
44.52	3.53798
44.56	3.49802
44.6	3.46587
44.64	3.50795
44.68	3.55591
44.72	3.56662
44.76	3.5305
44.8	3.45721
44.84	3.48575
44.88	3.52885
44.92	3.57018
44.96	3.55087
45.0	3.50613
45.04	3.46114
45.08	3.49681
45.12	3.54805
45.16	3.5683
45.2	3.53191
45.24	3.46027
45.28	3.47972
45.32	3.5217
45.36	3.56812
45.4	3.55664
45.44	3.51028
45.48	3.464
45.52	3.49953
45.56	3.54292
45.6	3.56783
45.64	3.53564
45.68	3.49084
45.72	3.46864
45.76	3.51082
45.8	3.55869
45.84	3.549
45.88	3.50624
45.92	3.44453
45.96	3.47865
46.0	3.51932
46.04	3.55692
46.08	3.53214
46.12	3.49301
46.16	3.46057
46.2	3.495
46.24	3.54692
46.28	3.55319
46.32	3.51552
46.36	3.45584
46.4	3.47566
46.44	3.51898
46.48	3.56754
46.52	3.5517
46.56	3.51198
46.6	3.46283
46.64	3.50279
46.68	3.55252
46.72	3.57047
46.76	3.53554
46.8	3.46161
46.84	3.47565
