Time (s) rumore_abientale_1.5_candela	Light Intensity (% of scale max) rumore_abientale_1.5_candela
0.0	1.33987
0.04	1.31483
0.08	1.29015
0.12	1.25772
0.16	1.2579
0.2	1.27167
0.24	1.28902
0.28	1.31119
0.32	1.33527
0.36	1.31409
0.4	1.29037
0.44	1.25548
0.48	1.24838
0.52	1.26248
0.56	1.2813
0.6	1.30396
0.64	1.33165
0.68	1.31523
0.72	1.29192
0.76	1.25967
0.8	1.24782
0.84	1.26093
0.88	1.2803
0.92	1.30203
0.96	1.33083
1.0	1.33662
1.04	1.29771
1.08	1.26994
1.12	1.25539
1.16	1.26495
1.2	1.28279
1.24	1.30441
1.28	1.33418
1.32	1.34381
1.36	1.30479
1.4	1.28339
1.44	1.2565
1.48	1.26859
1.52	1.28151
1.56	1.2999
1.6	1.32693
1.64	1.33737
1.68	1.30893
1.72	1.27771
1.76	1.25311
1.8	1.25935
1.84	1.27353
1.88	1.29427
1.92	1.32057
1.96	1.33641
2.0	1.30426
2.04	1.27383
2.08	1.2469
2.12	1.25015
2.16	1.26385
2.2	1.28093
2.24	1.30396
2.28	1.32272
2.32	1.29605
2.36	1.27003
2.4	1.23993
2.44	1.23906
2.48	1.25427
2.52	1.2774
2.56	1.30104
2.6	1.32062
2.64	1.29172
2.68	1.26956
2.72	1.23422
2.76	1.22879
2.8	1.24139
2.84	1.25826
2.88	1.28026
2.92	1.30634
2.96	1.29265
3.0	1.23364
3.04	1.19528
3.08	1.17657
3.12	1.17714
3.16	1.1823
3.2	1.18884
3.24	1.22154
3.28	1.22369
3.32	1.19307
3.36	1.16637
3.4	1.14386
3.44	1.1494
3.48	1.16235
3.52	1.17749
3.56	1.19235
3.6	1.22554
3.64	1.21771
3.68	1.18611
3.72	1.1658
3.76	1.16519
3.8	1.18245
3.84	1.20741
3.88	1.23015
3.92	1.26729
3.96	1.27029
4.0	1.2403
4.04	1.21205
4.08	1.19098
4.12	1.19994
4.16	1.21576
4.2	1.23056
4.24	1.2608
4.28	1.27176
4.32	1.23444
4.36	1.21056
4.4	1.18427
4.44	1.18996
4.48	1.20113
4.52	1.2169
4.56	1.24306
4.6	1.26765
4.64	1.25647
4.68	1.21936
4.72	1.19032
4.76	1.18292
4.8	1.19739
4.84	1.21281
4.88	1.2294
4.92	1.2645
4.96	1.25951
5.0	1.22261
5.04	1.19978
5.08	1.1834
5.12	1.19562
5.16	1.20946
5.2	1.22737
5.24	1.25696
5.28	1.2663
5.32	1.23895
5.36	1.21355
5.4	1.18979
5.44	1.19612
5.48	1.20857
5.52	1.22803
5.56	1.25357
5.6	1.27695
5.64	1.26628
5.68	1.22995
5.72	1.20175
5.76	1.20198
5.8	1.2137
5.84	1.23
5.88	1.24854
5.92	1.2717
5.96	1.26555
6.0	1.22258
6.04	1.19023
6.08	1.1796
6.12	1.18716
6.16	1.19925
6.2	1.20908
6.24	1.24048
6.28	1.24229
6.32	1.20451
6.36	1.17468
6.4	1.15457
6.44	1.15672
6.48	1.16121
6.52	1.17514
6.56	1.19215
6.6	1.21581
6.64	1.21466
6.68	1.17488
6.72	1.1503
6.76	1.14757
6.8	1.15897
6.84	1.17482
6.88	1.18791
6.92	1.22456
6.96	1.22815
7.0	1.19179
7.04	1.16737
7.08	1.14902
7.12	1.1601
7.16	1.17287
7.2	1.19089
7.24	1.21642
7.28	1.23947
7.32	1.22569
7.36	1.19084
7.4	1.16449
7.44	1.16618
7.48	1.17799
7.52	1.1947
7.56	1.20964
7.6	1.24242
7.64	1.23746
7.68	1.20026
7.72	1.17879
7.76	1.16148
7.8	1.17274
7.84	1.18515
7.88	1.19698
7.92	1.22624
7.96	1.23338
8.0	1.21797
8.04	1.17581
8.08	1.14954
8.12	1.15164
8.16	1.15979
8.2	1.17482
8.24	1.18445
8.28	1.22079
8.32	1.21667
8.36	1.19354
8.4	1.1579
8.44	1.14345
8.48	1.15347
8.52	1.16286
8.56	1.18007
8.6	1.19872
8.64	1.22052
8.68	1.2149
8.72	1.174
8.76	1.14864
8.8	1.14607
8.84	1.15396
8.88	1.16887
8.92	1.1805
8.96	1.21579
9.0	1.2224
9.04	1.20972
9.08	1.16682
9.12	1.14757
9.16	1.1515
9.2	1.16412
9.24	1.18126
9.28	1.19695
9.32	1.23128
9.36	1.22418
9.4	1.1895
9.44	1.16351
9.48	1.15456
9.52	1.16643
9.56	1.1817
9.6	1.19685
9.64	1.23317
9.68	1.24019
9.72	1.22313
9.76	1.1825
9.8	1.16158
9.84	1.17192
9.88	1.18466
9.92	1.2002
9.96	1.22314
10.0	1.2421
10.04	1.23851
10.08	1.19632
10.12	1.17102
10.16	1.16901
10.2	1.18089
10.24	1.19727
10.28	1.2117
10.32	1.24521
10.36	1.24489
10.4	1.22415
10.44	1.18155
10.48	1.16331
10.52	1.17561
10.56	1.1881
10.6	1.20084
10.64	1.2332
10.68	1.24298
10.72	1.22733
10.76	1.18298
10.8	1.16185
10.84	1.16327
10.88	1.17514
10.92	1.1929
10.96	1.21144
11.0	1.23526
11.04	1.2291
11.08	1.20728
11.12	1.16063
11.16	1.15669
11.2	1.16705
11.24	1.18057
11.28	1.19016
11.32	1.22287
11.36	1.2267
11.4	1.21046
11.44	1.17068
11.48	1.14706
11.52	1.153
11.56	1.1664
11.6	1.18124
11.64	1.19566
11.68	1.2253
11.72	1.21568
11.76	1.19528
11.8	1.15836
11.84	1.14633
11.88	1.15932
11.92	1.1713
11.96	1.18527
12.0	1.21233
12.04	1.22771
12.08	1.21326
12.12	1.17372
12.16	1.14748
12.2	1.15065
12.24	1.16159
12.28	1.17868
12.32	1.19212
12.36	1.23177
12.4	1.23152
12.44	1.21948
12.48	1.17874
12.52	1.16714
12.56	1.18008
12.6	1.19623
12.64	1.21346
12.68	1.25281
12.72	1.26505
12.76	1.2477
12.8	1.20889
12.84	1.18886
12.88	1.19873
12.92	1.21045
12.96	1.23145
13.0	1.26218
13.04	1.28467
13.08	1.27863
13.12	1.25401
13.16	1.21066
13.2	1.20897
13.24	1.22531
13.28	1.24623
13.32	1.27014
13.36	1.29572
13.4	1.29173
13.44	1.27191
13.48	1.22163
13.52	1.21614
13.56	1.23132
13.6	1.25058
13.64	1.27144
13.68	1.30167
13.72	1.3071
13.76	1.28951
13.8	1.24443
13.84	1.23528
13.88	1.24768
13.92	1.26869
13.96	1.29318
14.0	1.32344
14.04	1.32797
14.08	1.31194
14.12	1.26422
14.16	1.25075
14.2	1.26414
14.24	1.28247
14.28	1.30417
14.32	1.33183
14.36	1.34097
14.4	1.32555
14.44	1.27246
14.48	1.25206
14.52	1.25542
14.56	1.269
14.6	1.2886
14.64	1.31775
14.68	1.33116
14.72	1.31546
14.76	1.2917
14.8	1.24539
14.84	1.24841
14.88	1.26166
14.92	1.28088
14.96	1.30711
15.0	1.32231
15.04	1.31149
15.08	1.27876
15.12	1.23048
15.16	1.23253
15.2	1.244
15.24	1.26291
15.28	1.2858
15.32	1.30281
15.36	1.28679
15.4	1.25653
15.44	1.21002
15.48	1.20639
15.52	1.21884
15.56	1.23576
15.6	1.2598
15.64	1.28365
15.68	1.28362
15.72	1.26181
15.76	1.22707
15.8	1.22238
15.84	1.2363
15.88	1.25665
15.92	1.2776
15.96	1.30649
16.0	1.30754
16.04	1.28922
16.08	1.25124
16.12	1.23593
16.16	1.24904
16.2	1.27075
16.24	1.29579
16.28	1.32756
16.32	1.33443
16.36	1.31741
16.4	1.2872
16.44	1.2525
16.48	1.26012
16.52	1.27707
16.56	1.29788
16.6	1.32764
16.64	1.33591
16.68	1.32204
16.72	1.29437
16.76	1.25758
16.8	1.2677
16.84	1.28589
16.88	1.30878
16.92	1.34018
16.96	1.35361
17.0	1.34007
17.04	1.3168
17.08	1.2757
17.12	1.2861
17.16	1.30327
17.2	1.32652
17.24	1.35457
17.28	1.36966
17.32	1.36052
17.36	1.3293
17.4	1.28732
17.44	1.29266
17.48	1.30827
17.52	1.32939
17.56	1.35661
17.6	1.37775
17.64	1.3656
17.68	1.34296
17.72	1.29144
17.76	1.28955
17.8	1.30319
17.84	1.32312
17.88	1.34575
17.92	1.36789
17.96	1.35594
18.0	1.33211
18.04	1.27849
18.08	1.27803
18.12	1.28923
18.16	1.30913
18.2	1.33295
18.24	1.35638
18.28	1.34926
18.32	1.32428
18.36	1.27547
18.4	1.26848
18.44	1.28369
18.48	1.30313
18.52	1.32564
18.56	1.35339
18.6	1.35109
18.64	1.32814
18.68	1.29971
18.72	1.26698
18.76	1.27853
18.8	1.29485
18.84	1.31526
18.88	1.34462
18.92	1.34624
18.96	1.32866
19.0	1.2925
19.04	1.26126
19.08	1.27208
19.12	1.2894
19.16	1.30968
19.2	1.33815
19.24	1.34509
19.28	1.32953
19.32	1.29842
19.36	1.26355
19.4	1.27109
19.44	1.28822
19.48	1.31145
19.52	1.33861
19.56	1.35045
19.6	1.33698
19.64	1.30588
19.68	1.27087
19.72	1.27876
19.76	1.29395
19.8	1.31459
19.84	1.34239
19.88	1.35463
19.92	1.34468
19.96	1.31256
20.0	1.27498
20.04	1.28387
20.08	1.29941
20.12	1.32237
20.16	1.34998
20.2	1.36604
20.24	1.35626
20.28	1.32228
20.32	1.28015
20.36	1.28448
20.4	1.29762
20.44	1.31735
20.48	1.34113
20.52	1.36081
20.56	1.34895
20.6	1.32088
20.64	1.27435
20.68	1.27441
20.72	1.28561
20.76	1.30553
20.8	1.32829
20.84	1.35179
20.88	1.3434
20.92	1.32225
20.96	1.28833
21.0	1.26953
21.04	1.28308
21.08	1.30266
21.12	1.32475
21.16	1.35274
21.2	1.34859
21.24	1.32059
21.28	1.29997
21.32	1.27061
21.36	1.28693
21.4	1.30699
21.44	1.33134
21.48	1.35901
21.52	1.35663
21.56	1.33083
21.6	1.30875
21.64	1.27713
21.68	1.29073
21.72	1.30978
21.76	1.33136
21.8	1.36105
21.84	1.35995
21.88	1.33871
21.92	1.30988
21.96	1.27396
22.0	1.28879
22.04	1.30377
22.08	1.32318
22.12	1.35223
22.16	1.3573
22.2	1.33829
22.24	1.30002
22.28	1.26512
22.32	1.27293
22.36	1.28812
22.4	1.30731
22.44	1.33582
22.48	1.34529
22.52	1.32841
22.56	1.3064
22.6	1.26405
22.64	1.27052
22.68	1.28619
22.72	1.30869
22.76	1.34061
22.8	1.35527
22.84	1.34021
22.88	1.31355
22.92	1.27109
22.96	1.27774
23.0	1.29688
23.04	1.32048
23.08	1.35097
23.12	1.37839
23.16	1.37129
23.2	1.34384
23.24	1.32434
23.28	1.31146
23.32	1.32797
23.36	1.35036
23.4	1.37772
23.44	1.39946
23.48	1.38815
23.52	1.3587
23.56	1.33264
23.6	1.31326
23.64	1.32874
23.68	1.34972
23.72	1.37532
23.76	1.39857
23.8	1.39009
23.84	1.35695
23.88	1.33464
23.92	1.31392
23.96	1.33047
24.0	1.35233
24.04	1.37683
24.08	1.40343
24.12	1.39438
24.16	1.36842
24.2	1.33884
24.24	1.31456
24.28	1.33005
24.32	1.3513
24.36	1.37511
24.4	1.40604
24.44	1.40285
24.48	1.37801
24.52	1.34489
24.56	1.32042
24.6	1.33597
24.64	1.35544
24.68	1.37558
24.72	1.40617
24.76	1.39699
24.8	1.37447
24.84	1.34117
24.88	1.3199
24.92	1.33829
24.96	1.35751
25.0	1.37787
25.04	1.40945
25.08	1.40094
25.12	1.37825
25.16	1.34088
25.2	1.31842
25.24	1.33128
25.28	1.35048
25.32	1.37384
25.36	1.40245
25.4	1.39035
25.44	1.37102
25.48	1.33507
25.52	1.31194
25.56	1.32536
25.6	1.3463
25.64	1.36725
25.68	1.39618
25.72	1.39073
25.76	1.37003
25.8	1.33168
25.84	1.30795
25.88	1.3226
25.92	1.3423
25.96	1.36337
26.0	1.39607
26.04	1.39336
26.08	1.36871
26.12	1.33543
26.16	1.30821
26.2	1.32463
26.24	1.34282
26.28	1.3586
26.32	1.37572
26.36	1.37061
26.4	1.34793
26.44	1.33041
26.48	1.29446
26.52	1.30869
26.56	1.32562
26.6	1.35124
26.64	1.38463
26.68	1.38875
26.72	1.36795
26.76	1.33508
26.8	1.2995
26.84	1.31728
26.88	1.33507
26.92	1.35645
26.96	1.38675
27.0	1.39407
27.04	1.37218
27.08	1.34622
27.12	1.30692
27.16	1.32021
27.2	1.33914
27.24	1.36008
27.28	1.38878
27.32	1.39714
27.36	1.37778
27.4	1.34647
27.44	1.30937
27.48	1.3205
27.52	1.33754
27.56	1.35785
27.6	1.38689
27.64	1.40387
27.68	1.39003
27.72	1.35304
27.76	1.32971
27.8	1.32339
27.84	1.33893
27.88	1.36092
27.92	1.38666
27.96	1.40327
28.0	1.39026
28.04	1.35445
28.08	1.33421
28.12	1.32088
28.16	1.33627
28.2	1.35768
28.24	1.38286
28.28	1.40604
28.32	1.39299
28.36	1.37114
28.4	1.33565
28.44	1.32391
28.48	1.33873
28.52	1.36072
28.56	1.38449
28.6	1.40775
28.64	1.39619
28.68	1.36783
28.72	1.33928
28.76	1.31885
28.8	1.33496
28.84	1.35651
28.88	1.38399
28.92	1.40836
28.96	1.39742
29.0	1.37363
29.04	1.3351
29.08	1.31769
29.12	1.33389
29.16	1.35559
29.2	1.37953
29.24	1.40564
29.28	1.40024
29.32	1.37111
29.36	1.34395
29.4	1.32339
29.44	1.33673
29.48	1.35683
29.52	1.38086
29.56	1.40652
29.6	1.40094
29.64	1.37057
29.68	1.3492
29.72	1.31783
29.76	1.33487
29.8	1.35184
29.84	1.37128
29.88	1.39851
29.92	1.39195
29.96	1.3671
30.0	1.33615
30.04	1.3049
30.08	1.3196
30.12	1.34013
30.16	1.36177
30.2	1.39105
30.24	1.38741
30.28	1.36792
30.32	1.32971
30.36	1.3029
30.4	1.31837
30.44	1.33853
30.48	1.36072
30.52	1.39175
30.56	1.39322
30.6	1.37433
30.64	1.33641
30.68	1.31099
30.72	1.3251
30.76	1.34482
30.8	1.36586
30.84	1.39812
30.88	1.405
30.92	1.38072
30.96	1.35556
31.0	1.32254
31.04	1.33548
31.08	1.35535
31.12	1.37755
31.16	1.40953
31.2	1.41632
31.24	1.39296
31.28	1.36855
31.32	1.32961
31.36	1.34201
31.4	1.36172
31.44	1.3831
31.48	1.41325
31.52	1.4165
31.56	1.39902
31.6	1.35986
31.64	1.33537
31.68	1.34196
31.72	1.36121
31.76	1.38419
31.8	1.41708
31.84	1.42139
31.88	1.40517
31.92	1.36823
31.96	1.34435
32.0	1.34743
32.04	1.36455
32.08	1.3862
32.12	1.41472
32.16	1.41879
32.2	1.39391
32.24	1.35941
32.28	1.3196
32.32	1.32037
32.36	1.33347
32.4	1.35126
32.44	1.37941
32.48	1.38719
32.52	1.36995
32.56	1.3302
32.6	1.30586
32.64	1.30687
32.68	1.325
32.72	1.34755
32.76	1.3765
32.8	1.38358
32.84	1.36557
32.88	1.33914
32.92	1.30798
32.96	1.30565
33.0	1.32475
33.04	1.34807
33.08	1.37891
33.12	1.39441
33.16	1.38022
33.2	1.35185
33.24	1.32152
33.28	1.317
33.32	1.33426
33.36	1.35533
33.4	1.38486
33.44	1.39993
33.48	1.38515
33.52	1.34555
33.56	1.32246
33.6	1.31546
33.64	1.3316
33.68	1.35196
33.72	1.38042
33.76	1.39532
33.8	1.38036
33.84	1.34511
33.88	1.31767
33.92	1.31088
33.96	1.32765
34.0	1.34753
34.04	1.37617
34.08	1.39267
34.12	1.37721
34.16	1.34181
34.2	1.31117
34.24	1.30731
34.28	1.32217
34.32	1.34488
34.36	1.37398
34.4	1.38644
34.44	1.3709
34.48	1.34532
34.52	1.30966
34.56	1.30836
34.6	1.32399
34.64	1.34566
34.68	1.37309
34.72	1.38261
34.76	1.36484
34.8	1.33754
34.84	1.30084
34.88	1.29733
34.92	1.31253
34.96	1.33356
35.0	1.36018
35.04	1.3685
35.08	1.35172
35.12	1.31902
35.16	1.28468
35.2	1.28128
35.24	1.29825
35.28	1.3183
35.32	1.34587
35.36	1.36115
35.4	1.34785
35.44	1.31078
35.48	1.28716
35.52	1.27727
35.56	1.29405
35.6	1.31749
35.64	1.34698
35.68	1.36873
35.72	1.35968
35.76	1.32678
35.8	1.30347
35.84	1.29558
35.88	1.31273
35.92	1.33762
35.96	1.36763
36.0	1.38689
36.04	1.37379
36.08	1.34724
36.12	1.31264
36.16	1.30478
36.2	1.31944
36.24	1.34152
36.28	1.36902
36.32	1.38889
36.36	1.37602
36.4	1.35229
36.44	1.31775
36.48	1.3054
36.52	1.32968
36.56	1.35347
36.6	1.38306
36.64	1.40494
36.68	1.39696
36.72	1.36397
36.76	1.34479
36.8	1.32124
36.84	1.3493
36.88	1.37395
36.92	1.40543
36.96	1.42883
37.0	1.4232
37.04	1.39157
37.08	1.37401
37.12	1.35243
37.16	1.38181
37.2	1.40852
37.24	1.43761
37.28	1.45697
37.32	1.44707
37.36	1.4175
37.4	1.38692
37.44	1.37024
37.48	1.39113
37.52	1.41191
37.56	1.43953
37.6	1.45914
37.64	1.44695
37.68	1.40965
37.72	1.38675
37.76	1.36261
37.8	1.38861
37.84	1.41063
37.88	1.43738
37.92	1.45584
37.96	1.4424
38.0	1.40622
38.04	1.38412
38.08	1.3627
38.12	1.38818
38.16	1.40881
38.2	1.43556
38.24	1.45439
38.28	1.44032
38.32	1.40268
38.36	1.38043
38.4	1.35754
38.44	1.3846
38.48	1.40402
38.52	1.43208
38.56	1.44824
38.6	1.43709
38.64	1.4019
38.68	1.37305
38.72	1.35831
38.76	1.38136
38.8	1.40341
38.84	1.4315
38.88	1.44688
38.92	1.43234
38.96	1.40578
39.0	1.37051
39.04	1.35507
39.08	1.37901
39.12	1.39969
39.16	1.4287
39.2	1.44667
39.24	1.43433
39.28	1.40428
39.32	1.36765
39.36	1.35565
39.4	1.37892
39.44	1.39958
39.48	1.42671
39.52	1.44479
39.56	1.42757
39.6	1.39253
39.64	1.36632
39.68	1.35002
39.72	1.37173
39.76	1.39224
39.8	1.41809
39.84	1.43422
39.88	1.41776
39.92	1.38052
39.96	1.35655
40.0	1.33664
40.04	1.36058
40.08	1.38226
40.12	1.41
40.16	1.42491
40.2	1.40903
40.24	1.38318
40.28	1.34677
40.32	1.33458
40.36	1.36122
40.4	1.38504
40.44	1.41685
40.48	1.43224
40.52	1.41995
40.56	1.39467
40.6	1.36026
40.64	1.3515
40.68	1.3765
40.72	1.3998
40.76	1.42963
40.8	1.44626
40.84	1.43193
40.88	1.4082
40.92	1.37352
40.96	1.36279
41.0	1.38776
41.04	1.41115
41.08	1.44165
41.12	1.45609
41.16	1.44383
41.2	1.41936
41.24	1.38326
41.28	1.3727
41.32	1.39737
41.36	1.41788
41.4	1.4456
41.44	1.46361
41.48	1.44756
41.52	1.41345
41.56	1.3866
41.6	1.36928
41.64	1.39313
41.68	1.41705
41.72	1.4435
41.76	1.45892
41.8	1.44243
41.84	1.4077
41.88	1.38206
41.92	1.36528
41.96	1.39174
42.0	1.41354
42.04	1.44414
42.08	1.4563
42.12	1.4391
42.16	1.41354
42.2	1.37544
42.24	1.36826
42.28	1.39229
42.32	1.41318
42.36	1.4413
42.4	1.45584
42.44	1.44083
42.48	1.40707
42.52	1.3744
42.56	1.36569
42.6	1.39073
42.64	1.4127
42.68	1.44348
42.72	1.45493
42.76	1.43697
42.8	1.40663
42.84	1.37651
42.88	1.36324
42.92	1.39093
42.96	1.41197
43.0	1.44078
43.04	1.45512
43.08	1.44023
43.12	1.40196
43.16	1.37872
43.2	1.36452
43.24	1.39116
43.28	1.41188
43.32	1.44127
43.36	1.45587
43.4	1.44238
43.44	1.40883
43.48	1.37854
43.52	1.36642
43.56	1.396
43.6	1.41879
43.64	1.45024
43.68	1.45824
43.72	1.43956
43.76	1.41132
43.8	1.37643
43.84	1.36861
43.88	1.39674
43.92	1.4175
43.96	1.44685
44.0	1.45541
44.04	1.43631
44.08	1.40262
44.12	1.37161
44.16	1.36418
44.2	1.38867
44.24	1.41049
44.28	1.43796
44.32	1.44812
44.36	1.43066
44.4	1.39041
44.44	1.36746
44.48	1.35616
44.52	1.38263
44.56	1.40425
44.6	1.43593
44.64	1.44138
44.68	1.42105
44.72	1.39069
44.76	1.35913
44.8	1.35275
44.84	1.38097
44.88	1.40221
44.92	1.43286
44.96	1.44032
45.0	1.42148
45.04	1.39467
45.08	1.35796
45.12	1.35077
45.16	1.37859
45.2	1.39914
45.24	1.42941
45.28	1.43855
45.32	1.41879
45.36	1.39394
45.4	1.35672
45.44	1.34978
45.48	1.37648
45.52	1.39957
45.56	1.4294
45.6	1.43814
45.64	1.42244
45.68	1.38692
45.72	1.36272
45.76	1.35454
45.8	1.3826
45.84	1.40518
45.88	1.43521
45.92	1.44604
45.96	1.43051
46.0	1.39439
46.04	1.37308
46.08	1.35944
46.12	1.38654
46.16	1.40851
46.2	1.43608
46.24	1.45113
46.28	1.4344
46.32	1.39793
46.36	1.37569
46.4	1.35989
46.44	1.38594
46.48	1.40683
46.52	1.43622
46.56	1.45187
46.6	1.4335
46.64	1.40735
46.68	1.37013
46.72	1.36197
46.76	1.38699
46.8	1.40689
46.84	1.43764
46.88	1.44806
46.92	1.43156
46.96	1.39796
47.0	1.37341
47.04	1.3586
47.08	1.38515
47.12	1.40575
47.16	1.4369
47.2	1.44743
47.24	1.43024
47.28	1.40416
47.32	1.36807
47.36	1.36101
47.4	1.38486
47.44	1.40652
47.48	1.43648
47.52	1.44463
47.56	1.4257
47.6	1.3999
47.64	1.36308
47.68	1.35297
47.72	1.381
47.76	1.40331
47.8	1.43332
47.84	1.44275
47.88	1.4238
47.92	1.39726
47.96	1.36133
48.0	1.35294
48.04	1.38017
48.08	1.40372
48.12	1.43356
48.16	1.44337
48.2	1.42506
48.24	1.38954
48.28	1.36391
48.32	1.35635
48.36	1.38148
48.4	1.40366
48.44	1.43402
48.48	1.44112
48.52	1.42206
48.56	1.3922
48.6	1.3614
48.64	1.35417
48.68	1.38017
48.72	1.40332
48.76	1.43456
48.8	1.44119
48.84	1.42616
48.88	1.38846
48.92	1.36491
48.96	1.35779
49.0	1.38425
49.04	1.40588
49.08	1.43617
49.12	1.44362
49.16	1.4286
49.2	1.39175
49.24	1.36559
49.28	1.35907
49.32	1.38589
49.36	1.40775
49.4	1.43726
49.44	1.44601
49.48	1.42764
49.52	1.40253
49.56	1.36548
49.6	1.3568
49.64	1.38506
49.68	1.4053
49.72	1.43433
49.76	1.44644
49.8	1.4281
49.84	1.40228
49.88	1.36728
49.92	1.36034
49.96	1.3853
50.0	1.40669
50.04	1.43605
50.08	1.44644
50.12	1.42845
50.16	1.39229
50.2	1.36838
50.24	1.35678
50.28	1.38281
50.32	1.4032
50.36	1.43045
50.4	1.44185
50.44	1.4239
50.48	1.39005
50.52	1.36076
50.56	1.34955
50.6	1.36076
50.64	1.39265
50.68	1.41959
50.72	1.4272
50.76	1.40463
50.8	1.36974
50.84	1.338
50.88	1.32848
50.92	1.33833
50.96	1.37025
51.0	1.39828
51.04	1.40611
51.08	1.38693
51.12	1.35773
51.16	1.32323
51.2	1.31584
51.24	1.3279
51.28	1.35918
51.32	1.38902
51.36	1.39963
51.4	1.38536
51.44	1.34735
51.48	1.32089
51.52	1.3089
51.56	1.32503
51.6	1.35713
51.64	1.38721
51.68	1.40129
51.72	1.38524
51.76	1.36162
51.8	1.32552
51.84	1.31741
51.88	1.33066
51.92	1.36317
51.96	1.39352
52.0	1.40964
52.04	1.3969
52.08	1.36079
52.12	1.33398
52.16	1.32225
52.2	1.33435
52.24	1.36948
52.28	1.39624
52.32	1.41411
52.36	1.39972
52.4	1.36829
52.44	1.34084
52.48	1.32822
52.52	1.34055
52.56	1.37646
52.6	1.40526
52.64	1.42349
52.68	1.4095
52.72	1.38606
52.76	1.35172
52.8	1.3427
52.84	1.35449
52.88	1.39127
52.92	1.42076
52.96	1.43727
53.0	1.42612
53.04	1.39272
53.08	1.36533
53.12	1.34904
53.16	1.36537
53.2	1.39664
53.24	1.42613
53.28	1.44522
53.32	1.43208
53.36	1.39447
53.4	1.37141
53.44	1.35095
53.48	1.36693
53.52	1.399
53.56	1.42755
53.6	1.44962
53.64	1.43564
53.68	1.40161
53.72	1.37483
53.76	1.35928
53.8	1.37117
53.84	1.40497
53.88	1.43199
53.92	1.45055
53.96	1.43597
54.0	1.40854
54.04	1.37383
54.08	1.36145
54.12	1.37231
54.16	1.40434
54.2	1.43077
54.24	1.44991
54.28	1.43353
54.32	1.40651
54.36	1.3719
54.4	1.35815
54.44	1.36986
54.48	1.40266
54.52	1.43065
54.56	1.44965
54.6	1.43576
54.64	1.39784
54.68	1.37494
54.72	1.35533
54.76	1.37166
54.8	1.40546
54.84	1.43576
54.88	1.44844
54.92	1.43498
54.96	1.40457
55.0	1.37108
55.04	1.36113
55.08	1.37381
55.12	1.40793
55.16	1.43536
55.2	1.45151
55.24	1.43452
55.28	1.40012
55.32	1.37492
55.36	1.36189
55.4	1.37608
55.44	1.40976
55.48	1.43991
55.52	1.45358
55.56	1.43758
55.6	1.40933
55.64	1.37567
55.68	1.36736
55.72	1.37825
55.76	1.41132
55.8	1.4402
55.84	1.45441
55.88	1.43781
55.92	1.40755
55.96	1.37685
56.0	1.36479
56.04	1.3756
56.08	1.40947
56.12	1.43925
56.16	1.45206
56.2	1.43637
56.24	1.41074
56.28	1.37376
56.32	1.36343
56.36	1.37447
56.4	1.40836
56.44	1.43718
56.48	1.45218
56.52	1.43616
56.56	1.40442
56.6	1.37482
56.64	1.35707
56.68	1.37297
56.72	1.40308
56.76	1.43123
56.8	1.44612
56.84	1.43208
56.88	1.39262
56.92	1.3683
56.96	1.34933
57.0	1.36246
57.04	1.39075
57.08	1.41664
57.12	1.42981
57.16	1.41342
57.2	1.37299
57.24	1.34171
57.28	1.32487
57.32	1.33879
57.36	1.3665
57.4	1.39381
57.44	1.40994
57.48	1.39714
57.52	1.36002
57.56	1.33545
57.6	1.31442
57.64	1.326
57.68	1.35718
57.72	1.38443
57.76	1.40225
57.8	1.3924
57.84	1.36366
57.88	1.33211
57.92	1.31892
57.96	1.33293
58.0	1.3681
58.04	1.39452
58.08	1.4156
58.12	1.403
58.16	1.37877
58.2	1.34334
58.24	1.33102
58.28	1.34142
58.32	1.3754
58.36	1.40271
58.4	1.42235
58.44	1.40982
58.48	1.38487
58.52	1.34984
58.56	1.33342
58.6	1.34756
58.64	1.38132
58.68	1.40973
58.72	1.42943
58.76	1.42044
58.8	1.38585
58.84	1.3647
58.88	1.34224
58.92	1.35919
58.96	1.3786
59.0	1.42201
59.04	1.44699
59.08	1.43666
59.12	1.41281
59.16	1.37601
59.2	1.36168
59.24	1.37056
59.28	1.38875
59.32	1.4303
59.36	1.45279
59.4	1.44305
59.44	1.41972
59.48	1.38512
59.52	1.36531
59.56	1.37561
59.6	1.39401
59.64	1.43112
59.68	1.45705
59.72	1.44411
59.76	1.42168
59.8	1.38278
59.84	1.36621
59.88	1.37411
59.92	1.39166
59.96	1.43112
60.0	1.45537
60.04	1.4469
60.08	1.42123
60.12	1.3916
60.16	1.36938
60.2	1.38092
60.24	1.39885
60.28	1.44016
60.32	1.46223
60.36	1.45253
60.4	1.42374
60.44	1.39403
60.48	1.37347
60.52	1.38347
60.56	1.40128
60.6	1.44008
60.64	1.46324
60.68	1.45123
60.72	1.42491
60.76	1.38867
60.8	1.37225
60.84	1.38034
60.88	1.39792
60.92	1.43686
60.96	1.45903
61.0	1.44833
61.04	1.42448
61.08	1.38742
61.12	1.37079
61.16	1.38022
61.2	1.39745
61.24	1.43636
61.28	1.46083
61.32	1.44897
61.36	1.42545
61.4	1.38872
61.44	1.37158
61.48	1.37982
61.52	1.40022
61.56	1.43681
61.6	1.46242
61.64	1.45221
61.68	1.42575
61.72	1.3907
61.76	1.3737
61.8	1.38153
61.84	1.39903
61.88	1.4388
61.92	1.46072
61.96	1.4521
62.0	1.42561
62.04	1.39003
62.08	1.37343
62.12	1.38132
62.16	1.39879
62.2	1.43953
62.24	1.46234
62.28	1.4545
62.32	1.42316
62.36	1.40089
62.4	1.37076
62.44	1.38281
62.48	1.39946
62.52	1.44077
62.56	1.46277
62.6	1.45659
62.64	1.42451
62.68	1.39568
62.72	1.37502
62.76	1.3815
62.8	1.39961
62.84	1.43692
62.88	1.46545
62.92	1.4539
62.96	1.42543
63.0	1.39624
63.04	1.37067
63.08	1.38098
63.12	1.39949
63.16	1.43845
63.2	1.46155
63.24	1.45161
63.28	1.42178
63.32	1.39502
63.36	1.36559
63.4	1.37454
63.44	1.39111
63.48	1.42601
63.52	1.4498
63.56	1.43959
63.6	1.40903
63.64	1.38057
63.68	1.35017
63.72	1.35599
63.76	1.36996
63.8	1.40718
63.84	1.43097
63.88	1.42189
63.92	1.39775
63.96	1.36061
64.0	1.33739
64.04	1.3418
64.08	1.35786
64.12	1.39331
64.16	1.42072
64.2	1.41853
64.24	1.38913
64.28	1.36673
64.32	1.33426
64.36	1.34013
64.4	1.35574
64.44	1.39392
64.48	1.42194
64.52	1.41933
64.56	1.39305
64.6	1.36699
64.64	1.33563
64.68	1.3412
64.72	1.35806
64.76	1.39211
64.8	1.42415
64.84	1.42389
64.88	1.4005
64.92	1.37599
64.96	1.34506
65.0	1.34952
65.04	1.36623
65.08	1.40417
65.12	1.43805
65.16	1.43687
65.2	1.41756
65.24	1.38503
65.28	1.36385
65.32	1.36603
65.36	1.38333
65.4	1.42044
65.44	1.4501
65.48	1.45474
65.52	1.4325
65.56	1.40604
65.6	1.37259
65.64	1.37355
65.68	1.39197
65.72	1.42648
65.76	1.45998
65.8	1.46066
65.84	1.43819
65.88	1.41197
65.92	1.38052
65.96	1.37985
66.0	1.39447
66.04	1.43013
66.08	1.4595
66.12	1.46156
66.16	1.43704
66.2	1.41252
66.24	1.38045
66.28	1.37962
66.32	1.39728
66.36	1.43007
66.4	1.46117
66.44	1.46408
66.48	1.43988
66.52	1.41258
66.56	1.38029
66.6	1.38116
66.64	1.39738
66.68	1.43077
66.72	1.46436
66.76	1.46373
66.8	1.43884
66.84	1.41565
66.88	1.382
66.92	1.38144
66.96	1.39587
67.0	1.43028
67.04	1.46103
67.08	1.46239
67.12	1.43877
67.16	1.41263
67.2	1.38011
67.24	1.37845
67.28	1.39606
67.32	1.42923
67.36	1.45934
67.4	1.46274
67.44	1.44223
67.48	1.41257
67.52	1.38147
67.56	1.37987
67.6	1.39423
67.64	1.43094
67.68	1.46027
67.72	1.46368
67.76	1.44472
67.8	1.40779
67.84	1.38121
67.88	1.38002
67.92	1.39473
67.96	1.43021
68.0	1.45914
68.04	1.46408
68.08	1.44012
68.12	1.41631
68.16	1.38138
68.2	1.3812
68.24	1.39783
68.28	1.43285
68.32	1.46492
68.36	1.46661
68.4	1.44574
68.44	1.40669
68.48	1.38268
68.52	1.38329
68.56	1.39772
68.6	1.43224
68.64	1.46217
68.68	1.46545
68.72	1.44043
68.76	1.4055
68.8	1.3811
68.84	1.38234
68.88	1.39728
68.92	1.43141
68.96	1.46341
69.0	1.46346
69.04	1.43884
69.08	1.41656
69.12	1.38075
69.16	1.37956
69.2	1.39682
69.24	1.42735
69.28	1.45775
69.32	1.46016
69.36	1.43936
69.4	1.40771
69.44	1.37657
69.48	1.36987
69.52	1.38371
69.56	1.41727
69.6	1.44446
69.64	1.44949
69.68	1.42961
69.72	1.38771
69.76	1.36028
69.8	1.35489
69.84	1.36505
69.88	1.39359
69.92	1.42415
69.96	1.43105
70.0	1.41051
70.04	1.3786
70.08	1.34705
70.12	1.33572
70.16	1.34875
70.2	1.38113
70.24	1.40814
70.28	1.41591
70.32	1.39691
70.36	1.37117
70.4	1.33333
70.44	1.32182
70.48	1.3382
70.52	1.37247
70.56	1.40205
70.6	1.41379
70.64	1.4007
70.68	1.36353
70.72	1.34137
70.76	1.32832
70.8	1.34126
70.84	1.37798
70.88	1.40671
70.92	1.42221
70.96	1.41144
71.0	1.38408
71.04	1.34839
71.08	1.33887
71.12	1.35092
71.16	1.38707
71.2	1.41711
71.24	1.43478
71.28	1.4243
71.32	1.39204
71.36	1.36177
71.4	1.3474
71.44	1.36467
71.48	1.39894
71.52	1.4288
71.56	1.45183
71.6	1.43997
71.64	1.40976
71.68	1.3813
71.72	1.3661
71.76	1.37854
71.8	1.4118
71.84	1.43976
71.88	1.45996
71.92	1.44765
71.96	1.4223
72.0	1.38623
72.04	1.3734
72.08	1.38478
72.12	1.41791
72.16	1.44438
72.2	1.46753
72.24	1.45418
72.28	1.42453
72.32	1.39314
72.36	1.37308
72.4	1.38504
72.44	1.41713
72.48	1.44461
72.52	1.46458
72.56	1.45294
72.6	1.418
72.64	1.39583
72.68	1.36967
72.72	1.38315
72.76	1.41537
72.8	1.44182
72.84	1.45973
72.88	1.44875
72.92	1.41228
72.96	1.38795
73.0	1.36223
73.04	1.37508
73.08	1.40547
73.12	1.43066
73.16	1.44643
73.2	1.43454
73.24	1.39575
73.28	1.36768
73.32	1.34023
73.36	1.34947
73.4	1.37918
73.44	1.40384
73.48	1.42433
73.52	1.4149
73.56	1.38255
73.6	1.3575
73.64	1.32944
73.68	1.34093
73.72	1.3716
73.76	1.39563
73.8	1.42187
73.84	1.41321
73.88	1.38533
73.92	1.35849
73.96	1.33302
74.0	1.34273
74.04	1.37297
74.08	1.39844
74.12	1.42574
74.16	1.41718
74.2	1.39337
74.24	1.35789
74.28	1.33614
74.32	1.34004
74.36	1.35583
74.4	1.39455
74.44	1.42104
74.48	1.41777
74.52	1.39244
74.56	1.36911
74.6	1.33728
74.64	1.34441
74.68	1.35941
74.72	1.3967
74.76	1.42494
74.8	1.41963
74.84	1.39972
74.88	1.36053
74.92	1.33836
74.96	1.3398
75.0	1.35652
75.04	1.39133
75.08	1.42142
75.12	1.42218
75.16	1.39799
75.2	1.37021
75.24	1.33875
75.28	1.3399
75.32	1.35405
75.36	1.38844
75.4	1.41954
75.44	1.41768
75.48	1.39426
75.52	1.36716
75.56	1.33575
75.6	1.33472
75.64	1.34834
75.68	1.38261
75.72	1.41356
75.76	1.41574
75.8	1.39555
75.84	1.36993
75.88	1.33331
75.92	1.32942
75.96	1.34372
76.0	1.37769
76.04	1.40564
76.08	1.41177
76.12	1.39128
76.16	1.35527
76.2	1.32602
76.24	1.31915
76.28	1.32718
76.32	1.35764
76.36	1.38123
76.4	1.38654
76.44	1.36459
76.48	1.33113
76.52	1.29878
76.56	1.28673
76.6	1.30017
76.64	1.3309
76.68	1.35907
76.72	1.36911
76.76	1.35028
76.8	1.32538
76.84	1.2868
76.88	1.27673
76.92	1.29198
76.96	1.32271
77.0	1.35188
77.04	1.36804
77.08	1.35715
77.12	1.32213
77.16	1.29854
77.2	1.28278
77.24	1.29491
77.28	1.32985
77.32	1.35696
77.36	1.37752
77.4	1.36868
77.44	1.33522
77.48	1.31458
77.52	1.29405
77.56	1.30937
77.6	1.34329
77.64	1.37361
77.68	1.39848
77.72	1.38835
77.76	1.36206
77.8	1.33134
77.84	1.314
77.88	1.32539
77.92	1.35825
77.96	1.38562
78.0	1.40698
78.04	1.39676
78.08	1.36584
78.12	1.34323
78.16	1.31598
78.2	1.3302
78.24	1.35973
78.28	1.38478
78.32	1.40923
78.36	1.40248
78.4	1.37164
78.44	1.34302
78.48	1.31912
78.52	1.32957
78.56	1.36046
78.6	1.38364
78.64	1.41235
78.68	1.40233
78.72	1.37891
78.76	1.34235
78.8	1.32245
78.84	1.32849
78.88	1.35999
78.92	1.38313
78.96	1.41058
79.0	1.40576
79.04	1.37723
79.08	1.35207
79.12	1.32307
79.16	1.33237
79.2	1.36281
79.24	1.38344
79.28	1.41251
79.32	1.4048
79.36	1.38162
79.4	1.34372
79.44	1.32155
79.48	1.32593
79.52	1.35588
79.56	1.37822
79.6	1.40599
79.64	1.40446
79.68	1.37578
79.72	1.35271
79.76	1.3205
79.8	1.32692
79.84	1.34196
79.88	1.37679
79.92	1.40872
79.96	1.40514
80.0	1.37959
80.04	1.34813
80.08	1.32237
80.12	1.32442
80.16	1.34087
80.2	1.37762
80.24	1.4068
80.28	1.40697
80.32	1.38606
80.36	1.35281
80.4	1.32524
80.44	1.32759
80.48	1.34227
80.52	1.37587
80.56	1.40617
80.6	1.40752
80.64	1.38193
80.68	1.35893
80.72	1.32436
80.76	1.32542
80.8	1.34099
80.84	1.37801
80.88	1.40718
80.92	1.40718
80.96	1.38461
81.0	1.36038
81.04	1.3252
81.08	1.32343
81.12	1.33763
81.16	1.37395
81.2	1.40222
81.24	1.40623
81.28	1.38365
81.32	1.35789
81.36	1.32507
81.4	1.31992
81.44	1.33737
81.48	1.37024
81.52	1.40315
81.56	1.40883
81.6	1.38826
81.64	1.3576
81.68	1.32747
81.72	1.323
81.76	1.33421
81.8	1.36729
81.84	1.39572
81.88	1.40105
81.92	1.38309
81.96	1.34407
82.0	1.31335
82.04	1.30528
82.08	1.31665
82.12	1.34509
82.16	1.37219
82.2	1.38017
82.24	1.36177
82.28	1.32036
82.32	1.2934
82.36	1.28351
82.4	1.28947
82.44	1.31375
82.48	1.33463
82.52	1.34535
82.56	1.32745
82.6	1.29784
82.64	1.26582
82.68	1.2551
82.72	1.26654
82.76	1.29474
82.8	1.32141
82.84	1.33745
82.88	1.32396
82.92	1.28651
82.96	1.26421
83.0	1.2486
83.04	1.2627
83.08	1.29778
83.12	1.32738
83.16	1.34583
83.2	1.33092
83.24	1.30725
83.28	1.27136
83.32	1.26218
83.36	1.27428
83.4	1.30888
83.44	1.33759
83.48	1.35869
83.52	1.34891
83.56	1.32329
83.6	1.29504
83.64	1.28235
83.68	1.2944
83.72	1.32977
83.76	1.3586
83.8	1.38046
83.84	1.37216
83.88	1.3399
83.92	1.31926
83.96	1.29384
84.0	1.30951
84.04	1.34288
84.08	1.37198
84.12	1.3978
84.16	1.38936
84.2	1.36174
84.24	1.33292
84.28	1.31517
84.32	1.32454
84.36	1.35847
84.4	1.38431
84.44	1.40829
84.48	1.4024
84.52	1.3714
84.56	1.34796
84.6	1.32086
84.64	1.33095
84.68	1.36249
84.72	1.38455
84.76	1.41402
84.8	1.40648
84.84	1.38286
84.88	1.34583
84.92	1.32414
84.96	1.33493
85.0	1.36383
85.04	1.38766
85.08	1.41541
85.12	1.40976
85.16	1.37926
85.2	1.35838
85.24	1.32593
85.28	1.33632
85.32	1.35324
85.36	1.38817
85.4	1.41795
85.44	1.41159
85.48	1.38603
85.52	1.36021
85.56	1.32947
85.6	1.33699
85.64	1.35205
85.68	1.38977
85.72	1.41956
85.76	1.41327
85.8	1.39293
85.84	1.35713
85.88	1.33101
85.92	1.33763
85.96	1.35387
86.0	1.38766
86.04	1.41794
86.08	1.41678
86.12	1.39392
86.16	1.35648
86.2	1.33366
86.24	1.33621
86.28	1.35371
86.32	1.38866
86.36	1.41798
86.4	1.41707
86.44	1.38995
86.48	1.36699
86.52	1.33359
86.56	1.33656
86.6	1.35085
86.64	1.38705
86.68	1.41785
86.72	1.41586
86.76	1.39201
86.8	1.36154
86.84	1.33401
86.88	1.33311
86.92	1.34929
86.96	1.38254
87.0	1.41217
87.04	1.41454
87.08	1.39622
87.12	1.35811
87.16	1.33171
87.2	1.33096
87.24	1.34386
87.28	1.37477
87.32	1.40413
87.36	1.41081
87.4	1.39267
87.44	1.35524
87.48	1.32654
87.52	1.32155
87.56	1.33327
87.6	1.36542
87.64	1.39423
87.68	1.39587
87.72	1.3737
87.76	1.34561
87.8	1.30568
87.84	1.29796
87.88	1.31285
87.92	1.34213
87.96	1.37025
88.0	1.37595
88.04	1.35327
88.08	1.31972
88.12	1.28233
88.16	1.27177
88.2	1.28069
88.24	1.3089
88.28	1.33652
88.32	1.34799
88.36	1.33508
88.4	1.30048
88.44	1.27238
88.48	1.25858
88.52	1.2757
88.56	1.30899
88.6	1.34016
88.64	1.35806
88.68	1.34561
88.72	1.3203
88.76	1.29294
88.8	1.27892
88.84	1.29842
88.88	1.33334
88.92	1.36403
88.96	1.38712
89.0	1.37802
89.04	1.3549
89.08	1.32269
89.12	1.30891
89.16	1.32468
89.2	1.3613
89.24	1.39064
89.28	1.41185
89.32	1.40343
89.36	1.36923
89.4	1.34833
89.44	1.32722
89.48	1.34167
89.52	1.37527
89.56	1.40259
89.6	1.42735
89.64	1.41519
89.68	1.39093
89.72	1.35548
89.76	1.33963
89.8	1.35048
89.84	1.38332
89.88	1.40926
89.92	1.43008
89.96	1.42265
90.0	1.39029
90.04	1.36891
90.08	1.34691
90.12	1.36162
90.16	1.39731
90.2	1.42607
90.24	1.45552
90.28	1.44688
90.32	1.42538
90.36	1.39546
90.4	1.37846
90.44	1.39073
90.48	1.42685
90.52	1.45477
90.56	1.48441
90.6	1.47455
90.64	1.44737
90.68	1.42116
90.72	1.39468
90.76	1.40887
90.8	1.44183
90.84	1.46809
90.88	1.48898
90.92	1.48225
90.96	1.44788
91.0	1.4268
91.04	1.40054
91.08	1.41367
91.12	1.44598
91.16	1.47009
91.2	1.48865
91.24	1.47379
91.28	1.44444
91.32	1.40785
91.36	1.38951
91.4	1.39882
91.44	1.42976
91.48	1.45471
91.52	1.4776
91.56	1.46539
91.6	1.43402
91.64	1.40741
91.68	1.3886
91.72	1.39699
91.76	1.42763
91.8	1.45316
91.84	1.47247
91.88	1.46138
91.92	1.43637
91.96	1.40019
92.0	1.38568
92.04	1.3938
92.08	1.4258
92.12	1.45154
92.16	1.47186
92.2	1.45927
92.24	1.43573
92.28	1.40125
92.32	1.38429
92.36	1.39565
92.4	1.42769
92.44	1.45396
92.48	1.47285
92.52	1.46339
92.56	1.42966
92.6	1.40866
92.64	1.38367
92.68	1.39665
92.72	1.4265
92.76	1.453
92.8	1.4751
92.84	1.46275
92.88	1.43797
92.92	1.40431
92.96	1.38771
93.0	1.39655
93.04	1.42769
93.08	1.45312
93.12	1.47552
93.16	1.46469
93.2	1.43857
93.24	1.40604
93.28	1.38979
93.32	1.39738
93.36	1.43036
93.4	1.45474
93.44	1.47583
93.48	1.46533
93.52	1.44157
93.56	1.40802
93.6	1.39198
93.64	1.39879
93.68	1.42993
93.72	1.45497
93.76	1.47601
93.8	1.46573
93.84	1.44293
93.88	1.4063
93.92	1.39125
93.96	1.3997
94.0	1.43175
94.04	1.45712
94.08	1.4762
94.12	1.4688
94.16	1.43512
94.2	1.41483
94.24	1.38907
94.28	1.40002
94.32	1.43054
94.36	1.45702
94.4	1.47906
94.44	1.47139
94.48	1.43785
94.52	1.41817
94.56	1.3914
94.6	1.40384
94.64	1.42146
94.68	1.46075
94.72	1.48257
94.76	1.47336
94.8	1.44211
94.84	1.41963
94.88	1.39297
94.92	1.4046
94.96	1.42313
95.0	1.46103
95.04	1.48201
95.08	1.47278
95.12	1.44814
95.16	1.41257
95.2	1.39763
95.24	1.40788
95.28	1.42494
95.32	1.46471
95.36	1.48637
95.4	1.47572
95.44	1.44778
95.48	1.41716
95.52	1.39583
95.56	1.40744
95.6	1.42484
95.64	1.46432
95.68	1.48732
95.72	1.47697
95.76	1.45174
95.8	1.41858
95.84	1.40158
95.88	1.40744
95.92	1.42419
95.96	1.46062
96.0	1.48343
96.04	1.47281
96.08	1.45122
96.12	1.41557
96.16	1.39806
96.2	1.40776
96.24	1.425
96.28	1.46457
96.32	1.48494
96.36	1.47787
96.4	1.44469
96.44	1.42262
96.48	1.39749
96.52	1.40742
96.56	1.42488
96.6	1.46574
96.64	1.48479
96.68	1.47495
96.72	1.44554
96.76	1.42352
96.8	1.39726
96.84	1.40877
96.88	1.42746
96.92	1.4664
96.96	1.48634
97.0	1.47665
97.04	1.44385
97.08	1.42194
97.12	1.39944
97.16	1.40944
97.2	1.42686
97.24	1.46469
97.28	1.48607
97.32	1.47699
97.36	1.44606
97.4	1.4236
97.44	1.39734
97.48	1.4091
97.52	1.42743
97.56	1.46184
97.6	1.4866
97.64	1.47482
97.68	1.45206
97.72	1.41626
97.76	1.3994
97.8	1.40744
97.84	1.42299
97.88	1.4624
97.92	1.4827
97.96	1.47453
98.0	1.44151
98.04	1.42104
98.08	1.3912
98.12	1.39966
98.16	1.41573
98.2	1.44696
98.24	1.47234
98.28	1.46063
98.32	1.43488
98.36	1.40135
98.4	1.38254
98.44	1.38954
98.48	1.40572
98.52	1.44452
98.56	1.46582
98.6	1.4583
98.64	1.42778
98.68	1.40817
98.72	1.38199
98.76	1.39165
98.8	1.40865
98.84	1.44447
98.88	1.47014
98.92	1.46049
98.96	1.43793
99.0	1.40134
99.04	1.38403
99.08	1.39056
99.12	1.40672
99.16	1.44591
99.2	1.46729
99.24	1.4613
99.28	1.43002
99.32	1.40991
99.36	1.38277
99.4	1.39122
99.44	1.40698
99.48	1.44722
99.52	1.46988
99.56	1.46193
99.6	1.43404
99.64	1.40419
99.68	1.38367
99.72	1.39262
99.76	1.41016
99.8	1.44621
99.84	1.47197
99.88	1.46156
99.92	1.43593
99.96	1.4028
100.0	1.3839
100.04	1.39154
100.08	1.40697
100.12	1.44597
100.16	1.46921
100.2	1.45842
100.24	1.43388
100.28	1.39874
100.32	1.38145
100.36	1.38715
100.4	1.40425
100.44	1.4437
100.48	1.46501
100.52	1.45683
100.56	1.43146
100.6	1.40042
100.64	1.37802
100.68	1.38589
100.72	1.4014
100.76	1.43951
100.8	1.46321
100.84	1.452
100.88	1.42632
100.92	1.39264
100.96	1.37422
101.0	1.38054
101.04	1.39638
101.08	1.43437
101.12	1.45525
101.16	1.44951
101.2	1.42374
101.24	1.38969
101.28	1.37045
101.32	1.37761
101.36	1.39377
101.4	1.42929
101.44	1.45522
101.48	1.4464
101.52	1.41643
101.56	1.39362
101.6	1.3685
101.64	1.37845
101.68	1.39493
101.72	1.43517
101.76	1.4552
101.8	1.44908
101.84	1.42299
101.88	1.39076
101.92	1.3721
101.96	1.37834
102.0	1.39551
102.04	1.43625
102.08	1.46027
102.12	1.4529
102.16	1.42479
102.2	1.40068
102.24	1.37489
102.28	1.38463
102.32	1.40158
102.36	1.4386
102.4	1.46388
102.44	1.45628
102.48	1.42535
102.52	1.4063
102.56	1.37773
102.6	1.38757
102.64	1.40369
102.68	1.44043
102.72	1.46902
102.76	1.45886
102.8	1.43649
102.84	1.40053
102.88	1.37881
102.92	1.38525
102.96	1.39955
103.0	1.43378
103.04	1.46034
103.08	1.45122
103.12	1.42987
103.16	1.39323
103.2	1.37465
103.24	1.38261
103.28	1.40309
103.32	1.44139
103.36	1.465
